#  F125W  wavelength (A)   throughput  
    7773.857  0.
    7804.857    0.0000e+00
    7835.857    0.0000e+00
    7866.857    0.0000e+00
    7897.857    0.0000e+00
    7928.857    0.0000e+00
    7959.857    0.0000e+00
    7990.857    0.0000e+00
    8021.857    1.6380e-07
    8052.857    3.6016e-07
    8083.857    1.7813e-07
    8114.857    2.2965e-07
    8145.857    1.9694e-07
    8176.857    2.1165e-07
    8207.857    5.2283e-07
    8238.857    1.1321e-06
    8269.857    7.4287e-07
    8300.857    7.4475e-07
    8331.857    3.7299e-07
    8362.857    6.1659e-07
    8393.857    1.4439e-06
    8424.857    1.5140e-06
    8455.857    6.0158e-07
    8486.857    3.4925e-07
    8517.857    2.9391e-07
    8548.857    2.1542e-06
    8579.857    5.0280e-07
    8610.857    1.2579e-06
    8641.857    1.0273e-06
    8672.857    5.8448e-07
    8703.857    2.8661e-07
    8734.857    9.6508e-07
    8765.857    1.2401e-06
    8796.857    2.3258e-06
    8827.857    3.4395e-06
    8858.857    4.6069e-06
    8889.857    5.8206e-06
    8920.857    7.0228e-06
    8951.857    3.7162e-06
    8982.857    2.7873e-06
    9013.857    3.2898e-06
    9044.857    1.8075e-06
    9075.857    4.0250e-06
    9106.857    3.5670e-06
    9137.857    5.0539e-06
    9168.857    6.9413e-07
    9199.857    3.4296e-06
    9230.857    1.5305e-06
    9261.857    5.1116e-06
    9292.857    4.0850e-07
    9323.857    2.7617e-07
    9354.857    2.8952e-06
    9385.857    4.9266e-06
    9416.857    5.4438e-06
    9447.857    8.0506e-07
    9478.857    4.8282e-06
    9509.857    1.3127e-06
    9540.857    3.8259e-06
    9571.857    1.1963e-06
    9602.857    2.2638e-06
    9633.857    1.0249e-06
    9664.857    2.5534e-06
    9695.857    2.5922e-06
    9726.857    1.3837e-06
    9757.857    2.3779e-06
    9788.857    3.3024e-06
    9819.857    3.7199e-06
    9850.857    4.2256e-06
    9881.857    4.7414e-06
    9912.857    1.2438e-06
    9943.857    3.6860e-06
    9974.857    1.5836e-06
   10005.857    2.9845e-06
   10036.857    2.6912e-06
   10067.857    1.3133e-06
   10098.857    3.4349e-06
   10129.857    1.7435e-06
   10160.857    4.5314e-06
   10191.857    1.8266e-06
   10222.857    6.1059e-06
   10253.857    2.3939e-06
   10284.857    5.8042e-06
   10315.857    3.7265e-06
   10346.857    5.6840e-06
   10377.857    5.9252e-06
   10408.857    6.2896e-06
   10439.857    1.0752e-05
   10470.857    9.9519e-06
   10501.857    1.9446e-05
   10532.857    2.3563e-05
   10563.857    4.2435e-05
   10594.857    6.4048e-05
   10625.857    9.9812e-05
   10656.857    1.3682e-04
   10687.857    1.7457e-04
   10718.857    2.5896e-04
   10749.857    5.8281e-04
   10780.857    9.8811e-04
   10811.857    2.3975e-03
   10842.857    5.2511e-03
   10873.857    1.2409e-02
   10904.857    3.0230e-02
   10935.857    7.4864e-02
   10966.857    1.6562e-01
   10997.857    2.9452e-01
   11028.857    4.0393e-01
   11059.857    4.5759e-01
   11090.857    4.7572e-01
   11121.857    4.8191e-01
   11152.857    4.8556e-01
   11183.857    4.8676e-01
   11214.857    4.8820e-01
   11245.857    4.8955e-01
   11276.857    4.8991e-01
   11307.857    4.8845e-01
   11338.857    4.8635e-01
   11369.857    4.8567e-01
   11400.857    4.8781e-01
   11431.857    4.9086e-01
   11462.857    4.9234e-01
   11493.857    4.9118e-01
   11524.857    4.8998e-01
   11555.857    4.9257e-01
   11586.857    4.9949e-01
   11617.857    5.0708e-01
   11648.857    5.1064e-01
   11679.857    5.0819e-01
   11710.857    5.0465e-01
   11741.857    5.0330e-01
   11772.857    5.0527e-01
   11803.857    5.0845e-01
   11834.857    5.0953e-01
   11865.857    5.0796e-01
   11896.857    5.0585e-01
   11927.857    5.0629e-01
   11958.857    5.0902e-01
   11989.857    5.1285e-01
   12020.857    5.1455e-01
   12051.857    5.1485e-01
   12082.857    5.1535e-01
   12113.857    5.1729e-01
   12144.857    5.1949e-01
   12175.857    5.2007e-01
   12206.857    5.1922e-01
   12237.857    5.1654e-01
   12268.857    5.1615e-01
   12299.857    5.1868e-01
   12330.857    5.2313e-01
   12361.857    5.2751e-01
   12392.857    5.2919e-01
   12423.857    5.2850e-01
   12454.857    5.2711e-01
   12485.857    5.2840e-01
   12516.857    5.3103e-01
   12547.857    5.3305e-01
   12578.857    5.3222e-01
   12609.857    5.2850e-01
   12640.857    5.2377e-01
   12671.857    5.2202e-01
   12702.857    5.2437e-01
   12733.857    5.2956e-01
   12764.857    5.3472e-01
   12795.857    5.3875e-01
   12826.857    5.4085e-01
   12857.857    5.4068e-01
   12888.857    5.3889e-01
   12919.857    5.3534e-01
   12950.857    5.3010e-01
   12981.857    5.2350e-01
   13012.857    5.1822e-01
   13043.857    5.1703e-01
   13074.857    5.2038e-01
   13105.857    5.2764e-01
   13136.857    5.3625e-01
   13167.857    5.4298e-01
   13198.857    5.4708e-01
   13229.857    5.4816e-01
   13260.857    5.4830e-01
   13291.857    5.4737e-01
   13322.857    5.4506e-01
   13353.857    5.3967e-01
   13384.857    5.3252e-01
   13415.857    5.2550e-01
   13446.857    5.2066e-01
   13477.857    5.1996e-01
   13508.857    5.2273e-01
   13539.857    5.2715e-01
   13570.857    5.3127e-01
   13601.857    5.3503e-01
   13632.857    5.3472e-01
   13663.857    5.3445e-01
   13694.857    5.3263e-01
   13725.857    5.2951e-01
   13756.857    5.2506e-01
   13787.857    5.1795e-01
   13818.857    5.0667e-01
   13849.857    4.9740e-01
   13880.857    4.9618e-01
   13911.857    5.0593e-01
   13942.857    4.9594e-01
   13973.857    4.0455e-01
   14004.857    2.3896e-01
   14035.857    9.9801e-02
   14066.857    3.9222e-02
   14097.857    1.5524e-02
   14128.857    7.0579e-03
   14159.857    3.5418e-03
   14190.857    1.7507e-03
   14221.857    9.7519e-04
   14252.857    5.0070e-04
   14283.857    3.2242e-04
   14314.857    2.6066e-04
   14345.857    1.9887e-04
   14376.857    1.3706e-04
   14407.857    8.3567e-05
   14438.857    5.2037e-05
   14469.857    3.2343e-05
   14500.857    3.0774e-05
   14531.857    1.4171e-05
   14562.857    1.4280e-05
   14593.857    9.4481e-06
   14624.857    7.2396e-06
   14655.857    5.6433e-06
   14686.857    2.9204e-06
   14717.857    3.1059e-06
   14748.857    1.9472e-06
   14779.857    2.2432e-06
   14810.857    1.2861e-06
   14841.857    4.6561e-07
   14872.857    9.9725e-07
   14903.857    5.6845e-07
   14934.857    5.4058e-07
   14965.857    2.4567e-06
   14996.857    2.1940e-06
   15027.857    1.8930e-06
   15058.857    4.9858e-07
   15089.857    8.4704e-07
   15120.857    9.1486e-07
   15151.857    9.7817e-07
   15182.857    2.2108e-06
   15213.857    1.1855e-06
   15244.857    8.1993e-07
   15275.857    1.3103e-06
   15306.857    1.7494e-06
   15337.857    1.8476e-06
   15368.857    1.7206e-06
   15399.857    1.2741e-06
   15430.857    1.7054e-06
   15461.857    1.0209e-06
   15492.857    1.2437e-06
   15523.857    7.4806e-07
   15554.857    6.1173e-07
   15585.857    7.3706e-07
   15616.857    6.1271e-07
   15647.857    6.3833e-07
   15678.857    7.4748e-07
   15709.857    6.8370e-07
   15740.857    4.0112e-07
   15771.857    5.6974e-07
   15802.857    6.9749e-07
   15833.857    4.7685e-07
   15864.857    1.0331e-06
   15895.857    2.6128e-07
   15926.857    3.7261e-07
   15957.857    2.4400e-07
   15988.857    9.7035e-07
   16019.857    4.2815e-07
   16050.857    1.5362e-06
   16081.857    7.7146e-07
   16112.857    7.0494e-07
   16143.857    4.4115e-07
   16174.857    4.2293e-07
   16205.857    8.0909e-07
   16236.857    7.4666e-07
   16267.857    9.5388e-07
   16298.857    8.1696e-07
   16329.857    3.2016e-07
   16360.857    8.0197e-07
   16391.857    1.0534e-06
   16422.857    1.7063e-06
   16453.857    5.6507e-07
   16484.857    7.1649e-07
   16515.857    6.8140e-07
   16546.857    3.3787e-07
   16577.857    2.2322e-07
   16608.857    6.2754e-07
   16639.857    5.8710e-07
   16670.857    3.4080e-07
   16701.857    4.1571e-08
   16732.857    2.6724e-07
   16763.857    8.5241e-08
   16794.857    5.4721e-07
   16825.857    2.8325e-07
   16856.857    5.3935e-07
   16887.857    9.9632e-07
   16918.857    7.2058e-07
   16949.857    1.9589e-06
   16980.857    1.6417e-06
   17011.857    1.0825e-06
   17042.857    3.1414e-07
   17073.857    5.4440e-07
   17104.857    3.6140e-07
   17135.857    1.8365e-07
   17166.857    3.0849e-07
   17197.857  0.
