#  F140W  wavelength (A)   throughput  
    7482.052  0.
    7524.052    0.0000e+00
    7566.052    0.0000e+00
    7608.052    0.0000e+00
    7650.052    0.0000e+00
    7692.052    0.0000e+00
    7734.052    0.0000e+00
    7776.052    0.0000e+00
    7818.052    0.0000e+00
    7860.052    0.0000e+00
    7902.052    0.0000e+00
    7944.052    0.0000e+00
    7986.052    0.0000e+00
    8028.052    4.7696e-05
    8070.052    6.3415e-05
    8112.052    5.7681e-05
    8154.052    3.2278e-05
    8196.052    3.2670e-05
    8238.052    3.3174e-05
    8280.052    3.3613e-05
    8322.052    3.4059e-05
    8364.052    3.4472e-05
    8406.052    3.4605e-05
    8448.052    3.4714e-05
    8490.052    3.4824e-05
    8532.052    3.5012e-05
    8574.052    3.5089e-05
    8616.052    3.5125e-05
    8658.052    3.5295e-05
    8700.052    3.5540e-05
    8742.052    3.6155e-05
    8784.052    3.7119e-05
    8826.052    3.7962e-05
    8868.052    3.8978e-05
    8910.052    3.9880e-05
    8952.052    4.0327e-05
    8994.052    4.0798e-05
    9036.052    4.0962e-05
    9078.052    4.1198e-05
    9120.052    4.1423e-05
    9162.052    4.1692e-05
    9204.052    4.1957e-05
    9246.052    4.2180e-05
    9288.052    4.2504e-05
    9330.052    4.2832e-05
    9372.052    4.3157e-05
    9414.052    4.3440e-05
    9456.052    4.3666e-05
    9498.052    4.3967e-05
    9540.052    4.4201e-05
    9582.052    4.4460e-05
    9624.052    4.4652e-05
    9666.052    4.4905e-05
    9708.052    4.5130e-05
    9750.052    4.5370e-05
    9792.052    4.5608e-05
    9834.052    4.5764e-05
    9876.052    4.5978e-05
    9918.052    4.6179e-05
    9960.052    4.6366e-05
   10002.052    4.6542e-05
   10044.052    4.6833e-05
   10086.052    4.7103e-05
   10128.052    4.7346e-05
   10170.052    4.7618e-05
   10212.052    4.7844e-05
   10254.052    4.8111e-05
   10296.052    4.8329e-05
   10338.052    4.8581e-05
   10380.052    4.8827e-05
   10422.052    4.9071e-05
   10464.052    4.9272e-05
   10506.052    4.9487e-05
   10548.052    4.9555e-05
   10590.052    4.9621e-05
   10632.052    4.9673e-05
   10674.052    4.9721e-05
   10716.052    4.9812e-05
   10758.052    4.9862e-05
   10800.052    4.9913e-05
   10842.052    4.9978e-05
   10884.052    5.0089e-05
   10926.052    5.0162e-05
   10968.052    5.0241e-05
   11010.052    5.0355e-05
   11052.052    5.0425e-05
   11094.052    5.0538e-05
   11136.052    5.0607e-05
   11178.052    5.0721e-05
   11220.052    5.0839e-05
   11262.052    5.5769e-05
   11304.052    7.8658e-05
   11346.052    1.0166e-04
   11388.052    1.2475e-04
   11430.052    1.4790e-04
   11472.052    1.7128e-04
   11514.052    1.9477e-04
   11556.052    2.1835e-04
   11598.052    2.4200e-04
   11640.052    2.6586e-04
   11682.052    2.8961e-04
   11724.052    3.1371e-04
   11766.052    4.4443e-04
   11808.052    1.7268e-03
   11850.052    5.1033e-03
   11892.052    1.3664e-02
   11934.052    3.9164e-02
   11976.052    1.2529e-01
   12018.052    3.5579e-01
   12060.052    5.1539e-01
   12102.052    5.2530e-01
   12144.052    5.2485e-01
   12186.052    5.2832e-01
   12228.052    5.3422e-01
   12270.052    5.3620e-01
   12312.052    5.3334e-01
   12354.052    5.3105e-01
   12396.052    5.3251e-01
   12438.052    5.3472e-01
   12480.052    5.3524e-01
   12522.052    5.3287e-01
   12564.052    5.3092e-01
   12606.052    5.3332e-01
   12648.052    5.3834e-01
   12690.052    5.4401e-01
   12732.052    5.4602e-01
   12774.052    5.4332e-01
   12816.052    5.4168e-01
   12858.052    5.4292e-01
   12900.052    5.4703e-01
   12942.052    5.4917e-01
   12984.052    5.4801e-01
   13026.052    5.4526e-01
   13068.052    5.4471e-01
   13110.052    5.4634e-01
   13152.052    5.4892e-01
   13194.052    5.5037e-01
   13236.052    5.5169e-01
   13278.052    5.5389e-01
   13320.052    5.5483e-01
   13362.052    5.5475e-01
   13404.052    5.5225e-01
   13446.052    5.4801e-01
   13488.052    5.4642e-01
   13530.052    5.4723e-01
   13572.052    5.5024e-01
   13614.052    5.4926e-01
   13656.052    5.4756e-01
   13698.052    5.4266e-01
   13740.052    5.3692e-01
   13782.052    5.3149e-01
   13824.052    5.2437e-01
   13866.052    5.2521e-01
   13908.052    5.2865e-01
   13950.052    5.3111e-01
   13992.052    5.3664e-01
   14034.052    5.3973e-01
   14076.052    5.4325e-01
   14118.052    5.4636e-01
   14160.052    5.4808e-01
   14202.052    5.4908e-01
   14244.052    5.4885e-01
   14286.052    5.4765e-01
   14328.052    5.4814e-01
   14370.052    5.4879e-01
   14412.052    5.4926e-01
   14454.052    5.5098e-01
   14496.052    5.5210e-01
   14538.052    5.5288e-01
   14580.052    5.5123e-01
   14622.052    5.4887e-01
   14664.052    5.4594e-01
   14706.052    5.4495e-01
   14748.052    5.4659e-01
   14790.052    5.4782e-01
   14832.052    5.4962e-01
   14874.052    5.5065e-01
   14916.052    5.5176e-01
   14958.052    5.5367e-01
   15000.052    5.5522e-01
   15042.052    5.5483e-01
   15084.052    5.5125e-01
   15126.052    5.4639e-01
   15168.052    5.3851e-01
   15210.052    5.3171e-01
   15252.052    5.2705e-01
   15294.052    5.2456e-01
   15336.052    5.2435e-01
   15378.052    5.2504e-01
   15420.052    5.2613e-01
   15462.052    5.2670e-01
   15504.052    5.2633e-01
   15546.052    5.2558e-01
   15588.052    5.2255e-01
   15630.052    5.1740e-01
   15672.052    5.1052e-01
   15714.052    5.0309e-01
   15756.052    4.9693e-01
   15798.052    4.9779e-01
   15840.052    5.0854e-01
   15882.052    5.0371e-01
   15924.052    3.8775e-01
   15966.052    1.8852e-01
   16008.052    7.2384e-02
   16050.052    2.7269e-02
   16092.052    1.1341e-02
   16134.052    5.0877e-03
   16176.052    2.4203e-03
   16218.052    1.2720e-03
   16260.052    7.0262e-04
   16302.052    4.5789e-04
   16344.052    2.0305e-04
   16386.052    1.3725e-04
   16428.052    1.2007e-04
   16470.052    1.0300e-04
   16512.052    8.6108e-05
   16554.052    6.9239e-05
   16596.052    5.2482e-05
   16638.052    4.8506e-05
   16680.052    4.7824e-05
   16722.052    4.7104e-05
   16764.052    4.6434e-05
   16806.052    4.5728e-05
   16848.052    4.5044e-05
   16890.052    4.4391e-05
   16932.052    4.3701e-05
   16974.052    4.2993e-05
   17016.052    4.2271e-05
   17058.052    4.1441e-05
   17100.052    4.0643e-05
   17142.052    3.9814e-05
   17184.052    3.9009e-05
   17226.052    3.7396e-05
   17268.052    3.5287e-05
   17310.052    3.3232e-05
   17352.052    3.1209e-05
   17394.052    2.9188e-05
   17436.052    2.5753e-05
   17478.052    2.2147e-05
   17520.052    1.8610e-05
   17562.052    1.5143e-05
   17604.052    1.1864e-05
   17646.052    9.8875e-06
   17688.052    7.9411e-06
   17730.052    6.0378e-06
   17772.052    4.1766e-06
   17814.052    2.7939e-06
   17856.052    2.3032e-06
   17898.052    1.8229e-06
   17940.052    1.3551e-06
   17982.052    8.9985e-07
   18024.052    0.0000e+00
   18066.052    0.0000e+00
   18108.052    0.0000e+00
   18150.052    0.0000e+00
   18192.052    0.0000e+00
   18234.052    0.0000e+00
   18276.052    0.0000e+00
   18318.052    0.0000e+00
   18360.052    0.0000e+00
   18402.052    0.0000e+00
   18444.052    0.0000e+00
   18486.052    0.0000e+00
   18528.052    0.0000e+00
   18570.052    0.0000e+00
   18612.052    0.0000e+00
   18654.052    0.0000e+00
   18696.052    0.0000e+00
   18738.052    0.0000e+00
   18780.052    0.0000e+00
   18822.052    0.0000e+00
   18864.052    0.0000e+00
   18906.052    0.0000e+00
   18948.052    0.0000e+00
   18990.052    0.0000e+00
   19032.052    0.0000e+00
   19074.052    0.0000e+00
   19116.052    0.0000e+00
   19158.052    0.0000e+00
   19200.052    0.0000e+00
   19242.052    0.0000e+00
   19284.052    0.0000e+00
   19326.052    0.0000e+00
   19368.052    0.0000e+00
   19410.052    0.0000e+00
   19452.052    0.0000e+00
   19494.052    0.0000e+00
   19536.052    0.0000e+00
   19578.052    0.0000e+00
   19620.052    0.0000e+00
   19662.052    0.0000e+00
   19704.052    0.0000e+00
   19746.052    0.0000e+00
   19788.052    0.0000e+00
   19830.052    0.0000e+00
   19872.052    0.0000e+00
   19914.052    0.0000e+00
   19956.052    0.0000e+00
   19998.052    0.0000e+00
   20040.052    0.0000e+00
   20082.052    0.0000e+00
   20124.052    0.0000e+00
   20166.052    0.0000e+00
   20208.052    0.0000e+00
   20250.052    0.0000e+00
   20292.052    0.0000e+00
   20334.052  0.
