#  F160W  wavelength (A)   throughput  
   10899.923  0.
   10928.923    5.0290e-05
   10957.923    5.0345e-05
   10986.923    5.0446e-05
   11015.923    5.0489e-05
   11044.923    5.0537e-05
   11073.923    5.0628e-05
   11102.923    5.0677e-05
   11131.923    5.0725e-05
   11160.923    5.0817e-05
   11189.923    5.0865e-05
   11218.923    5.0963e-05
   11247.923    5.1019e-05
   11276.923    5.1105e-05
   11305.923    5.1175e-05
   11334.923    5.1253e-05
   11363.923    5.1332e-05
   11392.923    5.1432e-05
   11421.923    5.1497e-05
   11450.923    5.1609e-05
   11479.923    5.1677e-05
   11508.923    5.1786e-05
   11537.923    5.1846e-05
   11566.923    5.1950e-05
   11595.923    5.2036e-05
   11624.923    5.2115e-05
   11653.923    5.2221e-05
   11682.923    5.2295e-05
   11711.923    5.2388e-05
   11740.923    5.2493e-05
   11769.923    5.2555e-05
   11798.923    5.2661e-05
   11827.923    5.2747e-05
   11856.923    5.2819e-05
   11885.923    5.2873e-05
   11914.923    5.2959e-05
   11943.923    5.3017e-05
   11972.923    5.3085e-05
   12001.923    5.3172e-05
   12030.923    5.3277e-05
   12059.923    5.3336e-05
   12088.923    5.3441e-05
   12117.923    5.3547e-05
   12146.923    5.3638e-05
   12175.923    5.3712e-05
   12204.923    5.3815e-05
   12233.923    5.3906e-05
   12262.923    5.3998e-05
   12291.923    5.4053e-05
   12320.923    5.4136e-05
   12349.923    5.4227e-05
   12378.923    5.4314e-05
   12407.923    5.4371e-05
   12436.923    5.4481e-05
   12465.923    5.4592e-05
   12494.923    5.4680e-05
   12523.923    5.4740e-05
   12552.923    5.4815e-05
   12581.923    5.4891e-05
   12610.923    5.4964e-05
   12639.923    5.4987e-05
   12668.923    5.5056e-05
   12697.923    5.5125e-05
   12726.923    5.5179e-05
   12755.923    5.5217e-05
   12784.923    5.5285e-05
   12813.923    5.5314e-05
   12842.923    5.5338e-05
   12871.923    5.5380e-05
   12900.923    5.5423e-05
   12929.923    5.5419e-05
   12958.923    5.5461e-05
   12987.923    5.5494e-05
   13016.923    5.5532e-05
   13045.923    5.5629e-05
   13074.923    5.5702e-05
   13103.923    5.5777e-05
   13132.923    5.5874e-05
   13161.923    5.5935e-05
   13190.923    5.6023e-05
   13219.923    5.6097e-05
   13248.923    5.6115e-05
   13277.923    5.6170e-05
   13306.923    5.6197e-05
   13335.923    5.6261e-05
   13364.923    5.6278e-05
   13393.923    5.6342e-05
   13422.923    5.6290e-05
   13451.923    5.6265e-05
   13480.923    5.6194e-05
   13509.923    5.6161e-05
   13538.923    5.6069e-05
   13567.923    5.5976e-05
   13596.923    5.5930e-05
   13625.923    5.5536e-05
   13654.923    9.2233e-05
   13683.923    2.5293e-04
   13712.923    3.9649e-04
   13741.923    6.1324e-04
   13770.923    1.0340e-03
   13799.923    1.9042e-03
   13828.923    3.1125e-03
   13857.923    6.0038e-03
   13886.923    1.2198e-02
   13915.923    2.6823e-02
   13944.923    6.5933e-02
   13973.923    1.5970e-01
   14002.923    3.1704e-01
   14031.923    4.4185e-01
   14060.923    4.9544e-01
   14089.923    5.0277e-01
   14118.923    5.0164e-01
   14147.923    5.0353e-01
   14176.923    5.1015e-01
   14205.923    5.2144e-01
   14234.923    5.3388e-01
   14263.923    5.4294e-01
   14292.923    5.4746e-01
   14321.923    5.4808e-01
   14350.923    5.4852e-01
   14379.923    5.4955e-01
   14408.923    5.5074e-01
   14437.923    5.5136e-01
   14466.923    5.5140e-01
   14495.923    5.4849e-01
   14524.923    5.4451e-01
   14553.923    5.4163e-01
   14582.923    5.3941e-01
   14611.923    5.4092e-01
   14640.923    5.4432e-01
   14669.923    5.4829e-01
   14698.923    5.5112e-01
   14727.923    5.5046e-01
   14756.923    5.4702e-01
   14785.923    5.4050e-01
   14814.923    5.3401e-01
   14843.923    5.2793e-01
   14872.923    5.2600e-01
   14901.923    5.2633e-01
   14930.923    5.2941e-01
   14959.923    5.3406e-01
   14988.923    5.3931e-01
   15017.923    5.4325e-01
   15046.923    5.4594e-01
   15075.923    5.4715e-01
   15104.923    5.4779e-01
   15133.923    5.4713e-01
   15162.923    5.4515e-01
   15191.923    5.4088e-01
   15220.923    5.3630e-01
   15249.923    5.3025e-01
   15278.923    5.2333e-01
   15307.923    5.1673e-01
   15336.923    5.1218e-01
   15365.923    5.1025e-01
   15394.923    5.1095e-01
   15423.923    5.1395e-01
   15452.923    5.1802e-01
   15481.923    5.2234e-01
   15510.923    5.2465e-01
   15539.923    5.2588e-01
   15568.923    5.2581e-01
   15597.923    5.2487e-01
   15626.923    5.2381e-01
   15655.923    5.2351e-01
   15684.923    5.2420e-01
   15713.923    5.2396e-01
   15742.923    5.2378e-01
   15771.923    5.2240e-01
   15800.923    5.2037e-01
   15829.923    5.1869e-01
   15858.923    5.1669e-01
   15887.923    5.1466e-01
   15916.923    5.1344e-01
   15945.923    5.1228e-01
   15974.923    5.0963e-01
   16003.923    5.0654e-01
   16032.923    5.0186e-01
   16061.923    4.9735e-01
   16090.923    4.9389e-01
   16119.923    4.9146e-01
   16148.923    4.9088e-01
   16177.923    4.9191e-01
   16206.923    4.9281e-01
   16235.923    4.9243e-01
   16264.923    4.8960e-01
   16293.923    4.8393e-01
   16322.923    4.7616e-01
   16351.923    4.6801e-01
   16380.923    4.6078e-01
   16409.923    4.5912e-01
   16438.923    4.6156e-01
   16467.923    4.6749e-01
   16496.923    4.7468e-01
   16525.923    4.7855e-01
   16554.923    4.7684e-01
   16583.923    4.7117e-01
   16612.923    4.6294e-01
   16641.923    4.5511e-01
   16670.923    4.5178e-01
   16699.923    4.4905e-01
   16728.923    4.4355e-01
   16757.923    4.3082e-01
   16786.923    4.1522e-01
   16815.923    4.0211e-01
   16844.923    3.7026e-01
   16873.923    2.5642e-01
   16902.923    1.1772e-01
   16931.923    4.5359e-02
   16960.923    1.7036e-02
   16989.923    7.1472e-03
   17018.923    3.3334e-03
   17047.923    1.6299e-03
   17076.923    9.1645e-04
   17105.923    3.9844e-04
   17134.923    2.8035e-04
   17163.923    1.2455e-04
   17192.923    1.1685e-04
   17221.923    8.0597e-05
   17250.923    7.2465e-05
   17279.923    6.9616e-05
   17308.923    6.6730e-05
   17337.923    6.3877e-05
   17366.923    6.1121e-05
   17395.923    5.8333e-05
   17424.923    5.3565e-05
   17453.923    4.8533e-05
   17482.923    4.3567e-05
   17511.923    3.8668e-05
   17540.923    3.3836e-05
   17569.923    2.9070e-05
   17598.923    2.4347e-05
   17627.923    2.1522e-05
   17656.923    1.8794e-05
   17685.923    1.6114e-05
   17714.923    1.3463e-05
   17743.923    1.0854e-05
   17772.923    8.2956e-06
   17801.923    5.8917e-06
   17830.923    5.2007e-06
   17859.923    4.5263e-06
   17888.923    3.8629e-06
   17917.923    3.2077e-06
   17946.923    2.5665e-06
   17975.923    1.9358e-06
   18004.923    0.0000e+00
   18033.923    0.0000e+00
   18062.923    0.0000e+00
   18091.923    0.0000e+00
   18120.923    0.0000e+00
   18149.923    0.0000e+00
   18178.923    0.0000e+00
   18207.923    0.0000e+00
   18236.923    0.0000e+00
   18265.923    0.0000e+00
   18294.923    0.0000e+00
   18323.923    0.0000e+00
   18352.923    0.0000e+00
   18381.923    0.0000e+00
   18410.923    0.0000e+00
   18439.923    0.0000e+00
   18468.923    0.0000e+00
   18497.923    0.0000e+00
   18526.923    0.0000e+00
   18555.923    0.0000e+00
   18584.923    0.0000e+00
   18613.923    0.0000e+00
   18642.923    0.0000e+00
   18671.923    0.0000e+00
   18700.923    0.0000e+00
   18729.923    0.0000e+00
   18758.923    0.0000e+00
   18787.923    0.0000e+00
   18816.923    0.0000e+00
   18845.923    0.0000e+00
   18874.923    0.0000e+00
   18903.923    0.0000e+00
   18932.923    0.0000e+00
   18961.923    0.0000e+00
   18990.923    0.0000e+00
   19019.923    0.0000e+00
   19048.923    0.0000e+00
   19077.923    0.0000e+00
   19106.923    0.0000e+00
   19135.923    0.0000e+00
   19164.923    0.0000e+00
   19193.923    0.0000e+00
   19222.923    0.0000e+00
   19251.923    0.0000e+00
   19280.923    0.0000e+00
   19309.923    0.0000e+00
   19338.923    0.0000e+00
   19367.923    0.0000e+00
   19396.923    0.0000e+00
   19425.923    0.0000e+00
   19454.923    0.0000e+00
   19483.923    0.0000e+00
   19512.923    0.0000e+00
   19541.923    0.0000e+00
   19570.923    0.0000e+00
   19599.923    0.0000e+00
   19628.923    0.0000e+00
   19657.923    0.0000e+00
   19686.923    0.0000e+00
   19715.923    0.0000e+00
   19744.923    0.0000e+00
   19773.923    0.0000e+00
   19802.923    0.0000e+00
   19831.923  0.
