#  wavelength (A)   throughput  
    4114.271  0.
    4122.271    7.5753e-06
    4130.271    8.1424e-06
    4138.271    8.7161e-06
    4146.271    9.3131e-06
    4154.271    9.9044e-06
    4162.271    1.0430e-05
    4170.271    1.0820e-05
    4178.271    1.1221e-05
    4186.271    1.1624e-05
    4194.271    1.2015e-05
    4202.271    1.2084e-05
    4210.271    1.1364e-05
    4218.271    1.0638e-05
    4226.271    9.9058e-06
    4234.271    9.1655e-06
    4242.271    8.5623e-06
    4250.271    8.3189e-06
    4258.271    8.0786e-06
    4266.271    7.8404e-06
    4274.271    7.5992e-06
    4282.271    7.6002e-06
    4290.271    8.2213e-06
    4298.271    8.8497e-06
    4306.271    9.4749e-06
    4314.271    1.0107e-05
    4322.271    1.0866e-05
    4330.271    1.1928e-05
    4338.271    1.2985e-05
    4346.271    1.4054e-05
    4354.271    1.5120e-05
    4362.271    1.6041e-05
    4370.271    1.6618e-05
    4378.271    1.7198e-05
    4386.271    1.7767e-05
    4394.271    1.8330e-05
    4402.271    1.9363e-05
    4410.271    2.1590e-05
    4418.271    2.3817e-05
    4426.271    2.6011e-05
    4434.271    2.8207e-05
    4442.271    3.3742e-05
    4450.271    4.7673e-05
    4458.271    6.1550e-05
    4466.271    7.5475e-05
    4474.271    8.9387e-05
    4482.271    1.1573e-04
    4490.271    1.7347e-04
    4498.271    2.3127e-04
    4506.271    2.8889e-04
    4514.271    3.4642e-04
    4522.271    4.4399e-04
    4530.271    6.4268e-04
    4538.271    8.4062e-04
    4546.271    1.0386e-03
    4554.271    1.2358e-03
    4562.271    1.6566e-03
    4570.271    2.6436e-03
    4578.271    3.6275e-03
    4586.271    4.6706e-03
    4594.271    5.8818e-03
    4602.271    7.3710e-03
    4610.271    9.2390e-03
    4618.271    1.1562e-02
    4626.271    1.4469e-02
    4634.271    1.7921e-02
    4642.271    2.1995e-02
    4650.271    2.6838e-02
    4658.271    3.2759e-02
    4666.271    3.9430e-02
    4674.271    4.6710e-02
    4682.271    5.4697e-02
    4690.271    6.3713e-02
    4698.271    7.6109e-02
    4706.271    8.6776e-02
    4714.271    9.7077e-02
    4722.271    1.0767e-01
    4730.271    1.1875e-01
    4738.271    1.2888e-01
    4746.271    1.3969e-01
    4754.271    1.5127e-01
    4762.271    1.6282e-01
    4770.271    1.7298e-01
    4778.271    1.8508e-01
    4786.271    1.9708e-01
    4794.271    2.0907e-01
    4802.271    2.2037e-01
    4810.271    2.2997e-01
    4818.271    2.4113e-01
    4826.271    2.5109e-01
    4834.271    2.6059e-01
    4842.271    2.6917e-01
    4850.271    2.7582e-01
    4858.271    2.8459e-01
    4866.271    2.8944e-01
    4874.271    2.9371e-01
    4882.271    2.9834e-01
    4890.271    3.0277e-01
    4898.271    3.0592e-01
    4906.271    3.0858e-01
    4914.271    3.1141e-01
    4922.271    3.1417e-01
    4930.271    3.1617e-01
    4938.271    3.1866e-01
    4946.271    3.1775e-01
    4954.271    3.2107e-01
    4962.271    3.2724e-01
    4970.271    3.2936e-01
    4978.271    3.3635e-01
    4986.271    3.3820e-01
    4994.271    3.4049e-01
    5002.271    3.4437e-01
    5010.271    3.4804e-01
    5018.271    3.5029e-01
    5026.271    3.5097e-01
    5034.271    3.5262e-01
    5042.271    3.5426e-01
    5050.271    3.5290e-01
    5058.271    3.5609e-01
    5066.271    3.5354e-01
    5074.271    3.5240e-01
    5082.271    3.5242e-01
    5090.271    3.4885e-01
    5098.271    3.4765e-01
    5106.271    3.4638e-01
    5114.271    3.4561e-01
    5122.271    3.4533e-01
    5130.271    3.4518e-01
    5138.271    3.4428e-01
    5146.271    3.4359e-01
    5154.271    3.4349e-01
    5162.271    3.4434e-01
    5170.271    3.4641e-01
    5178.271    3.4926e-01
    5186.271    3.4942e-01
    5194.271    3.5065e-01
    5202.271    3.5268e-01
    5210.271    3.5277e-01
    5218.271    3.5539e-01
    5226.271    3.5609e-01
    5234.271    3.5728e-01
    5242.271    3.5829e-01
    5250.271    3.5664e-01
    5258.271    3.5641e-01
    5266.271    3.5696e-01
    5274.271    3.5676e-01
    5282.271    3.5480e-01
    5290.271    3.5076e-01
    5298.271    3.5200e-01
    5306.271    3.4958e-01
    5314.271    3.4813e-01
    5322.271    3.4744e-01
    5330.271    3.4449e-01
    5338.271    3.4587e-01
    5346.271    3.4471e-01
    5354.271    3.4382e-01
    5362.271    3.4374e-01
    5370.271    3.4368e-01
    5378.271    3.4703e-01
    5386.271    3.4810e-01
    5394.271    3.4919e-01
    5402.271    3.5062e-01
    5410.271    3.5150e-01
    5418.271    3.5264e-01
    5426.271    3.5525e-01
    5434.271    3.5762e-01
    5442.271    3.5921e-01
    5450.271    3.6013e-01
    5458.271    3.5919e-01
    5466.271    3.6080e-01
    5474.271    3.6231e-01
    5482.271    3.6285e-01
    5490.271    3.6280e-01
    5498.271    3.6639e-01
    5506.271    3.6410e-01
    5514.271    3.6193e-01
    5522.271    3.6096e-01
    5530.271    3.5918e-01
    5538.271    3.5838e-01
    5546.271    3.5580e-01
    5554.271    3.5480e-01
    5562.271    3.5404e-01
    5570.271    3.4952e-01
    5578.271    3.5012e-01
    5586.271    3.4767e-01
    5594.271    3.4521e-01
    5602.271    3.4279e-01
    5610.271    3.3871e-01
    5618.271    3.3772e-01
    5626.271    3.3569e-01
    5634.271    3.3583e-01
    5642.271    3.3619e-01
    5650.271    3.3165e-01
    5658.271    3.2769e-01
    5666.271    3.2678e-01
    5674.271    3.2640e-01
    5682.271    3.2438e-01
    5690.271    3.1903e-01
    5698.271    3.1719e-01
    5706.271    3.1606e-01
    5714.271    3.1428e-01
    5722.271    3.1048e-01
    5730.271    3.0366e-01
    5738.271    3.0480e-01
    5746.271    3.0118e-01
    5754.271    2.9770e-01
    5762.271    2.9503e-01
    5770.271    2.9127e-01
    5778.271    2.8930e-01
    5786.271    2.8654e-01
    5794.271    2.8460e-01
    5802.271    2.8226e-01
    5810.271    2.7677e-01
    5818.271    2.7509e-01
    5826.271    2.7029e-01
    5834.271    2.6621e-01
    5842.271    2.6295e-01
    5850.271    2.5830e-01
    5858.271    2.5558e-01
    5866.271    2.5085e-01
    5874.271    2.4673e-01
    5882.271    2.4268e-01
    5890.271    2.3633e-01
    5898.271    2.3316e-01
    5906.271    2.2757e-01
    5914.271    2.2262e-01
    5922.271    2.1847e-01
    5930.271    2.1358e-01
    5938.271    2.1170e-01
    5946.271    2.0865e-01
    5954.271    2.0454e-01
    5962.271    2.0053e-01
    5970.271    1.9845e-01
    5978.271    1.9761e-01
    5986.271    1.9614e-01
    5994.271    1.9493e-01
    6002.271    1.9286e-01
    6010.271    1.8765e-01
    6018.271    1.8304e-01
    6026.271    1.7395e-01
    6034.271    1.6365e-01
    6042.271    1.5204e-01
    6050.271    1.3701e-01
    6058.271    1.1916e-01
    6066.271    1.0101e-01
    6074.271    8.3881e-02
    6082.271    6.8270e-02
    6090.271    5.4091e-02
    6098.271    4.3284e-02
    6106.271    3.4306e-02
    6114.271    2.7138e-02
    6122.271    2.1507e-02
    6130.271    1.6930e-02
    6138.271    1.3529e-02
    6146.271    1.0763e-02
    6154.271    8.5822e-03
    6162.271    6.8995e-03
    6170.271    5.5759e-03
    6178.271    4.5803e-03
    6186.271    4.1722e-03
    6194.271    3.9265e-03
    6202.271    3.6205e-03
    6210.271    3.1625e-03
    6218.271    2.7041e-03
    6226.271    2.2466e-03
    6234.271    1.7875e-03
    6242.271    1.4108e-03
    6250.271    1.2449e-03
    6258.271    1.0785e-03
    6266.271    9.1205e-04
    6274.271    7.4551e-04
    6282.271    6.0642e-04
    6290.271    5.3706e-04
    6298.271    4.6773e-04
    6306.271    3.9826e-04
    6314.271    3.2880e-04
    6322.271    2.7109e-04
    6330.271    2.4308e-04
    6338.271    2.1504e-04
    6346.271    1.8675e-04
    6354.271    1.5848e-04
    6362.271    1.3459e-04
    6370.271    1.2165e-04
    6378.271    1.0880e-04
    6386.271    9.5878e-05
    6394.271    8.2888e-05
    6402.271    7.1746e-05
    6410.271    6.5358e-05
    6418.271    5.8991e-05
    6426.271    5.2559e-05
    6434.271    4.6120e-05
    6442.271    4.0505e-05
    6450.271    3.6955e-05
    6458.271    3.3407e-05
    6466.271    2.9830e-05
    6474.271    2.6265e-05
    6482.271    2.3192e-05
    6490.271    2.1334e-05
    6498.271    1.9486e-05
    6506.271    1.7642e-05
    6514.271    1.5793e-05
    6522.271    1.4148e-05
    6530.271    1.3031e-05
    6538.271    1.1920e-05
    6546.271    1.0820e-05
    6554.271    9.7116e-06
    6562.271    8.7192e-06
    6570.271    8.0375e-06
    6578.271    7.3480e-06
    6586.271    6.6614e-06
    6594.271    5.9746e-06
    6602.271  0.
