#  F775W  wavelength (A)   throughput  
    5987.740  0.
    5998.740    2.6900e-07
    6009.740    3.2768e-07
    6020.740    3.9392e-07
    6031.740    4.6081e-07
    6042.740    5.2808e-07
    6053.740    5.9499e-07
    6064.740    6.6239e-07
    6075.740    7.2987e-07
    6086.740    7.9771e-07
    6097.740    8.6575e-07
    6108.740    9.3375e-07
    6119.740    1.0029e-06
    6130.740    1.0716e-06
    6141.740    1.1408e-06
    6152.740    1.2101e-06
    6163.740    1.2794e-06
    6174.740    1.3496e-06
    6185.740    1.4199e-06
    6196.740    1.4905e-06
    6207.740    1.5601e-06
    6218.740    1.6292e-06
    6229.740    1.7002e-06
    6240.740    1.7698e-06
    6251.740    1.8403e-06
    6262.740    1.9107e-06
    6273.740    1.9822e-06
    6284.740    2.0537e-06
    6295.740    2.1240e-06
    6306.740    2.1946e-06
    6317.740    2.2665e-06
    6328.740    2.3390e-06
    6339.740    2.4122e-06
    6350.740    2.4820e-06
    6361.740    2.5546e-06
    6372.740    2.6268e-06
    6383.740    2.7014e-06
    6394.740    2.7741e-06
    6405.740    2.8460e-06
    6416.740    2.9195e-06
    6427.740    2.9906e-06
    6438.740    3.0614e-06
    6449.740    3.1330e-06
    6460.740    3.2053e-06
    6471.740    3.2742e-06
    6482.740    3.3463e-06
    6493.740    3.4162e-06
    6504.740    6.8530e-05
    6515.740    2.1969e-04
    6526.740    3.7074e-04
    6537.740    5.2179e-04
    6548.740    6.7393e-04
    6559.740    8.2526e-04
    6570.740    9.7755e-04
    6581.740    1.1289e-03
    6592.740    1.2810e-03
    6603.740    1.4332e-03
    6614.740    1.5855e-03
    6625.740    1.7372e-03
    6636.740    1.8895e-03
    6647.740    2.0418e-03
    6658.740    2.1932e-03
    6669.740    2.3472e-03
    6680.740    2.4979e-03
    6691.740    2.6520e-03
    6702.740    2.8042e-03
    6713.740    2.9567e-03
    6724.740    3.1113e-03
    6735.740    3.2629e-03
    6746.740    3.4141e-03
    6757.740    3.5687e-03
    6768.740    3.7178e-03
    6779.740    3.8707e-03
    6790.740    4.0237e-03
    6801.740    4.3803e-03
    6812.740    5.9471e-03
    6823.740    8.1501e-03
    6834.740    1.1125e-02
    6845.740    1.4863e-02
    6856.740    1.9706e-02
    6867.740    2.5725e-02
    6878.740    3.3949e-02
    6889.740    4.4360e-02
    6900.740    5.4580e-02
    6911.740    6.8494e-02
    6922.740    8.1300e-02
    6933.740    9.7716e-02
    6944.740    1.1519e-01
    6955.740    1.3427e-01
    6966.740    1.5636e-01
    6977.740    1.7469e-01
    6988.740    1.9370e-01
    6999.740    2.1559e-01
    7010.740    2.3815e-01
    7021.740    2.5562e-01
    7032.740    2.7262e-01
    7043.740    2.8956e-01
    7054.740    3.0252e-01
    7065.740    3.1734e-01
    7076.740    3.3002e-01
    7087.740    3.4265e-01
    7098.740    3.5065e-01
    7109.740    3.6154e-01
    7120.740    3.7420e-01
    7131.740    3.7412e-01
    7142.740    3.8432e-01
    7153.740    3.9171e-01
    7164.740    3.9645e-01
    7175.740    3.9809e-01
    7186.740    4.0218e-01
    7197.740    4.0728e-01
    7208.740    4.1409e-01
    7219.740    4.1585e-01
    7230.740    4.1954e-01
    7241.740    4.1885e-01
    7252.740    4.2093e-01
    7263.740    4.1927e-01
    7274.740    4.2194e-01
    7285.740    4.1778e-01
    7296.740    4.1648e-01
    7307.740    4.2209e-01
    7318.740    4.2653e-01
    7329.740    4.2426e-01
    7340.740    4.1884e-01
    7351.740    4.2481e-01
    7362.740    4.2375e-01
    7373.740    4.2370e-01
    7384.740    4.2519e-01
    7395.740    4.2288e-01
    7406.740    4.2395e-01
    7417.740    4.2013e-01
    7428.740    4.1629e-01
    7439.740    4.1629e-01
    7450.740    4.1133e-01
    7461.740    4.1180e-01
    7472.740    4.1035e-01
    7483.740    4.1039e-01
    7494.740    4.1109e-01
    7505.740    4.1106e-01
    7516.740    4.1186e-01
    7527.740    4.1611e-01
    7538.740    4.1554e-01
    7549.740    4.1628e-01
    7560.740    4.1325e-01
    7571.740    4.1293e-01
    7582.740    4.1188e-01
    7593.740    4.0864e-01
    7604.740    4.0657e-01
    7615.740    4.0703e-01
    7626.740    4.0753e-01
    7637.740    4.0518e-01
    7648.740    4.0172e-01
    7659.740    4.0198e-01
    7670.740    4.0428e-01
    7681.740    3.9828e-01
    7692.740    3.9339e-01
    7703.740    3.8922e-01
    7714.740    3.8466e-01
    7725.740    3.8094e-01
    7736.740    3.7650e-01
    7747.740    3.7438e-01
    7758.740    3.7474e-01
    7769.740    3.7221e-01
    7780.740    3.7376e-01
    7791.740    3.7659e-01
    7802.740    3.7770e-01
    7813.740    3.7913e-01
    7824.740    3.7969e-01
    7835.740    3.7962e-01
    7846.740    3.8076e-01
    7857.740    3.7417e-01
    7868.740    3.7349e-01
    7879.740    3.6954e-01
    7890.740    3.6712e-01
    7901.740    3.6431e-01
    7912.740    3.6164e-01
    7923.740    3.5939e-01
    7934.740    3.5757e-01
    7945.740    3.5511e-01
    7956.740    3.5097e-01
    7967.740    3.4927e-01
    7978.740    3.4634e-01
    7989.740    3.4418e-01
    8000.740    3.4096e-01
    8011.740    3.3785e-01
    8022.740    3.3329e-01
    8033.740    3.3322e-01
    8044.740    3.3254e-01
    8055.740    3.3275e-01
    8066.740    3.3268e-01
    8077.740    3.3303e-01
    8088.740    3.3445e-01
    8099.740    3.3384e-01
    8110.740    3.3539e-01
    8121.740    3.3334e-01
    8132.740    3.3306e-01
    8143.740    3.3098e-01
    8154.740    3.2913e-01
    8165.740    3.2898e-01
    8176.740    3.2750e-01
    8187.740    3.2737e-01
    8198.740    3.2547e-01
    8209.740    3.2701e-01
    8220.740    3.2370e-01
    8231.740    3.2134e-01
    8242.740    3.1553e-01
    8253.740    3.1103e-01
    8264.740    3.1047e-01
    8275.740    3.0673e-01
    8286.740    3.0226e-01
    8297.740    2.9596e-01
    8308.740    2.9619e-01
    8319.740    2.9009e-01
    8330.740    2.9055e-01
    8341.740    2.8496e-01
    8352.740    2.8548e-01
    8363.740    2.8218e-01
    8374.740    2.8004e-01
    8385.740    2.8087e-01
    8396.740    2.8087e-01
    8407.740    2.8005e-01
    8418.740    2.7981e-01
    8429.740    2.7592e-01
    8440.740    2.7108e-01
    8451.740    2.6547e-01
    8462.740    2.5846e-01
    8473.740    2.5254e-01
    8484.740    2.4565e-01
    8495.740    2.3452e-01
    8506.740    2.1856e-01
    8517.740    1.9553e-01
    8528.740    1.6441e-01
    8539.740    1.2747e-01
    8550.740    8.9875e-02
    8561.740    5.8279e-02
    8572.740    3.6363e-02
    8583.740    2.2104e-02
    8594.740    1.4029e-02
    8605.740    9.0562e-03
    8616.740    6.0768e-03
    8627.740    4.1881e-03
    8638.740    2.9161e-03
    8649.740    2.0381e-03
    8660.740    1.4445e-03
    8671.740    1.0662e-03
    8682.740    8.9262e-04
    8693.740    7.2216e-04
    8704.740    5.5389e-04
    8715.740    4.2372e-04
    8726.740    3.2884e-04
    8737.740    2.3521e-04
    8748.740    1.4310e-04
    8759.740    1.0920e-04
    8770.740    8.3303e-05
    8781.740    5.7698e-05
    8792.740    3.6890e-05
    8803.740    2.9525e-05
    8814.740    2.2253e-05
    8825.740    1.5089e-05
    8836.740    1.1249e-05
    8847.740    9.4754e-06
    8858.740    7.7265e-06
    8869.740    6.0166e-06
    8880.740    5.3643e-06
    8891.740    4.7443e-06
    8902.740    4.1370e-06
    8913.740    3.6322e-06
    8924.740    3.3164e-06
    8935.740    3.0045e-06
    8946.740    2.6983e-06
    8957.740    2.5414e-06
    8968.740    2.4452e-06
    8979.740    2.3517e-06
    8990.740    2.2691e-06
    9001.740    2.3289e-06
    9012.740    2.3845e-06
    9023.740    2.4415e-06
    9034.740    2.4659e-06
    9045.740    2.4503e-06
    9056.740    2.4348e-06
    9067.740    2.4175e-06
    9078.740    2.2637e-06
    9089.740    2.0751e-06
    9100.740    1.8903e-06
    9111.740    1.7021e-06
    9122.740    1.4733e-06
    9133.740    1.2484e-06
    9144.740    1.0271e-06
    9155.740    8.6882e-07
    9166.740    7.6709e-07
    9177.740    6.6658e-07
    9188.740    5.6803e-07
    9199.740    5.1807e-07
    9210.740    4.7488e-07
    9221.740    4.3246e-07
    9232.740    3.9864e-07
    9243.740    3.8848e-07
    9254.740    3.7858e-07
    9265.740    3.6871e-07
    9276.740    3.5111e-07
    9287.740    3.2866e-07
    9298.740    3.0676e-07
    9309.740    2.8518e-07
    9320.740    4.7568e-07
    9331.740    4.1761e-07
    9342.740    3.6072e-07
    9353.740    3.2562e-07
    9364.740    3.3088e-07
    9375.740    3.3567e-07
    9386.740    3.4033e-07
    9397.740  0.
