#  F814W  wavelength (A)   throughput  
    5741.732  0.
    5756.732    1.9975e-07
    5771.732    1.9935e-07
    5786.732    1.9915e-07
    5801.732    1.9887e-07
    5816.732    1.9849e-07
    5831.732    1.9831e-07
    5846.732    1.9791e-07
    5861.732    1.9750e-07
    5876.732    1.9723e-07
    5891.732    1.9700e-07
    5906.732    1.9682e-07
    5921.732    1.9642e-07
    5936.732    1.9632e-07
    5951.732    1.9608e-07
    5966.732    1.9603e-07
    5981.732    1.9584e-07
    5996.732    1.9555e-07
    6011.732    1.9680e-07
    6026.732    1.9841e-07
    6041.732    2.0029e-07
    6056.732    2.0187e-07
    6071.732    2.0357e-07
    6086.732    2.0524e-07
    6101.732    2.0692e-07
    6116.732    2.0868e-07
    6131.732    2.1044e-07
    6146.732    2.1223e-07
    6161.732    2.1389e-07
    6176.732    2.1576e-07
    6191.732    2.1757e-07
    6206.732    2.1926e-07
    6221.732    2.2079e-07
    6236.732    2.2247e-07
    6251.732    2.2409e-07
    6266.732    2.2572e-07
    6281.732    2.2754e-07
    6296.732    2.2907e-07
    6311.732    2.3065e-07
    6326.732    2.3244e-07
    6341.732    2.3422e-07
    6356.732    2.3575e-07
    6371.732    2.3739e-07
    6386.732    2.3930e-07
    6401.732    2.4090e-07
    6416.732    2.4261e-07
    6431.732    2.4403e-07
    6446.732    2.4551e-07
    6461.732    2.4703e-07
    6476.732    2.4839e-07
    6491.732    2.4973e-07
    6506.732    2.5070e-07
    6521.732    2.5085e-07
    6536.732    2.5081e-07
    6551.732    2.5128e-07
    6566.732    2.5144e-07
    6581.732    2.5153e-07
    6596.732    2.5170e-07
    6611.732    2.5194e-07
    6626.732    2.5198e-07
    6641.732    2.5212e-07
    6656.732    2.5215e-07
    6671.732    2.5240e-07
    6686.732    2.5246e-07
    6701.732    2.5260e-07
    6716.732    2.5276e-07
    6731.732    2.5293e-07
    6746.732    2.5284e-07
    6761.732    3.3855e-04
    6776.732    7.7052e-04
    6791.732    1.2031e-03
    6806.732    1.6347e-03
    6821.732    2.0652e-03
    6836.732    2.4972e-03
    6851.732    2.9261e-03
    6866.732    3.3579e-03
    6881.732    4.0092e-03
    6896.732    7.4220e-03
    6911.732    1.3076e-02
    6926.732    2.1518e-02
    6941.732    3.3452e-02
    6956.732    4.9370e-02
    6971.732    6.8243e-02
    6986.732    9.1293e-02
    7001.732    1.0313e-01
    7016.732    1.3112e-01
    7031.732    1.6185e-01
    7046.732    1.9051e-01
    7061.732    2.1773e-01
    7076.732    2.4654e-01
    7091.732    2.7118e-01
    7106.732    2.9160e-01
    7121.732    3.0764e-01
    7136.732    3.2384e-01
    7151.732    3.4139e-01
    7166.732    3.4860e-01
    7181.732    3.6437e-01
    7196.732    3.7927e-01
    7211.732    3.8923e-01
    7226.732    3.9690e-01
    7241.732    4.0775e-01
    7256.732    4.1730e-01
    7271.732    4.1869e-01
    7286.732    4.1976e-01
    7301.732    4.2052e-01
    7316.732    4.2308e-01
    7331.732    4.2127e-01
    7346.732    4.2606e-01
    7361.732    4.2408e-01
    7376.732    4.2201e-01
    7391.732    4.3527e-01
    7406.732    4.2807e-01
    7421.732    4.2710e-01
    7436.732    4.3283e-01
    7451.732    4.3293e-01
    7466.732    4.2730e-01
    7481.732    4.2577e-01
    7496.732    4.2887e-01
    7511.732    4.1654e-01
    7526.732    4.2018e-01
    7541.732    4.1351e-01
    7556.732    4.0499e-01
    7571.732    4.0665e-01
    7586.732    4.0793e-01
    7601.732    4.0207e-01
    7616.732    3.9937e-01
    7631.732    4.1335e-01
    7646.732    4.1582e-01
    7661.732    4.2253e-01
    7676.732    4.1654e-01
    7691.732    4.1319e-01
    7706.732    4.0646e-01
    7721.732    3.9902e-01
    7736.732    3.9421e-01
    7751.732    3.9246e-01
    7766.732    3.8764e-01
    7781.732    3.7985e-01
    7796.732    3.7885e-01
    7811.732    3.7959e-01
    7826.732    3.8049e-01
    7841.732    3.8195e-01
    7856.732    3.8276e-01
    7871.732    3.8845e-01
    7886.732    3.8413e-01
    7901.732    3.8457e-01
    7916.732    3.8500e-01
    7931.732    3.7793e-01
    7946.732    3.7929e-01
    7961.732    3.6665e-01
    7976.732    3.7005e-01
    7991.732    3.7400e-01
    8006.732    3.6720e-01
    8021.732    3.6287e-01
    8036.732    3.6333e-01
    8051.732    3.5959e-01
    8066.732    3.5798e-01
    8081.732    3.5615e-01
    8096.732    3.5299e-01
    8111.732    3.5610e-01
    8126.732    3.5890e-01
    8141.732    3.4810e-01
    8156.732    3.4786e-01
    8171.732    3.4398e-01
    8186.732    3.4157e-01
    8201.732    3.3842e-01
    8216.732    3.3900e-01
    8231.732    3.3247e-01
    8246.732    3.3305e-01
    8261.732    3.3210e-01
    8276.732    3.3062e-01
    8291.732    3.2804e-01
    8306.732    3.2109e-01
    8321.732    3.2055e-01
    8336.732    3.1788e-01
    8351.732    3.1622e-01
    8366.732    3.1374e-01
    8381.732    3.1176e-01
    8396.732    3.1114e-01
    8411.732    3.0627e-01
    8426.732    3.0716e-01
    8441.732    3.0476e-01
    8456.732    2.9830e-01
    8471.732    2.9870e-01
    8486.732    2.9694e-01
    8501.732    2.9073e-01
    8516.732    2.8976e-01
    8531.732    2.9423e-01
    8546.732    2.8618e-01
    8561.732    2.9120e-01
    8576.732    2.8322e-01
    8591.732    2.8491e-01
    8606.732    2.7752e-01
    8621.732    2.7535e-01
    8636.732    2.7566e-01
    8651.732    2.6941e-01
    8666.732    2.6954e-01
    8681.732    2.6343e-01
    8696.732    2.6206e-01
    8711.732    2.5719e-01
    8726.732    2.5569e-01
    8741.732    2.5245e-01
    8756.732    2.4815e-01
    8771.732    2.4861e-01
    8786.732    2.4604e-01
    8801.732    2.4342e-01
    8816.732    2.4256e-01
    8831.732    2.4043e-01
    8846.732    2.3922e-01
    8861.732    2.3583e-01
    8876.732    2.3217e-01
    8891.732    2.2928e-01
    8906.732    2.2726e-01
    8921.732    2.1919e-01
    8936.732    2.1853e-01
    8951.732    2.1533e-01
    8966.732    2.0921e-01
    8981.732    2.0816e-01
    8996.732    2.0635e-01
    9011.732    2.0618e-01
    9026.732    2.0342e-01
    9041.732    2.0019e-01
    9056.732    1.9674e-01
    9071.732    1.9485e-01
    9086.732    1.9164e-01
    9101.732    1.8834e-01
    9116.732    1.8725e-01
    9131.732    1.8456e-01
    9146.732    1.8080e-01
    9161.732    1.7991e-01
    9176.732    1.7708e-01
    9191.732    1.7512e-01
    9206.732    1.7474e-01
    9221.732    1.7221e-01
    9236.732    1.7034e-01
    9251.732    1.6788e-01
    9266.732    1.6787e-01
    9281.732    1.6487e-01
    9296.732    1.6240e-01
    9311.732    1.5996e-01
    9326.732    1.5752e-01
    9341.732    1.5451e-01
    9356.732    1.5209e-01
    9371.732    1.4917e-01
    9386.732    1.4595e-01
    9401.732    1.4324e-01
    9416.732    1.3640e-01
    9431.732    1.3428e-01
    9446.732    1.2995e-01
    9461.732    1.2553e-01
    9476.732    1.2172e-01
    9491.732    1.1816e-01
    9506.732    1.1659e-01
    9521.732    1.1582e-01
    9536.732    1.1391e-01
    9551.732    1.0580e-01
    9566.732    8.7688e-02
    9581.732    6.1903e-02
    9596.732    3.6367e-02
    9611.732    1.8493e-02
    9626.732    8.9668e-03
    9641.732    4.3971e-03
    9656.732    2.3083e-03
    9671.732    1.2629e-03
    9686.732    7.3906e-04
    9701.732    4.4480e-04
    9716.732    3.6606e-04
    9731.732    3.2021e-04
    9746.732    2.5409e-04
    9761.732    1.9259e-04
    9776.732    1.4270e-04
    9791.732    9.5689e-05
    9806.732    6.0176e-05
    9821.732    4.0064e-05
    9836.732    4.4681e-05
    9851.732    4.8322e-05
    9866.732    5.1564e-05
    9881.732    5.2757e-05
    9896.732    4.0123e-05
    9911.732    2.8054e-05
    9926.732    1.9573e-05
    9941.732    1.5074e-05
    9956.732    1.0799e-05
    9971.732    7.6604e-06
    9986.732    4.9377e-06
   10001.732    2.6431e-06
   10016.732    2.5020e-06
   10031.732    2.3665e-06
   10046.732    2.1842e-06
   10061.732    1.9482e-06
   10076.732    1.7210e-06
   10091.732    1.6182e-06
   10106.732    1.5492e-06
   10121.732    1.4623e-06
   10136.732    1.2317e-06
   10151.732    1.0127e-06
   10166.732    8.9413e-07
   10181.732    8.8772e-07
   10196.732    8.7868e-07
   10211.732    7.1196e-07
   10226.732    7.8432e-07
   10241.732    8.2304e-07
   10256.732    6.4584e-07
   10271.732    4.7723e-07
   10286.732    4.2207e-07
   10301.732    4.9265e-07
   10316.732    5.5764e-07
   10331.732    4.8748e-07
   10346.732    3.8595e-07
   10361.732  0.
