#  wavelength (A)   throughput  
    2990.000  0.
    3000.000    0.0000e+00
    3010.000    0.0000e+00
    3020.000    0.0000e+00
    3030.000    0.0000e+00
    3040.000    0.0000e+00
    3050.000    0.0000e+00
    3060.000    0.0000e+00
    3070.000    0.0000e+00
    3080.000    0.0000e+00
    3090.000    0.0000e+00
    3100.000    0.0000e+00
    3110.000    0.0000e+00
    3120.000    0.0000e+00
    3130.000    0.0000e+00
    3140.000    0.0000e+00
    3150.000    0.0000e+00
    3160.000    0.0000e+00
    3170.000    0.0000e+00
    3180.000    0.0000e+00
    3190.000    0.0000e+00
    3200.000    0.0000e+00
    3210.000    0.0000e+00
    3220.000    0.0000e+00
    3230.000    0.0000e+00
    3240.000    0.0000e+00
    3250.000    0.0000e+00
    3260.000    0.0000e+00
    3270.000    3.6777e-05
    3280.000    2.4339e-04
    3290.000    8.2280e-04
    3300.000    1.5181e-03
    3310.000    2.3344e-03
    3320.000    3.2841e-03
    3330.000    4.3755e-03
    3340.000    5.6234e-03
    3350.000    7.0434e-03
    3360.000    8.7413e-03
    3370.000    1.0656e-02
    3380.000    1.2776e-02
    3390.000    1.5168e-02
    3400.000    1.7889e-02
    3410.000    2.0928e-02
    3420.000    2.4207e-02
    3430.000    2.7855e-02
    3440.000    3.1898e-02
    3450.000    3.6149e-02
    3460.000    4.0694e-02
    3470.000    4.5632e-02
    3480.000    5.0596e-02
    3490.000    5.5641e-02
    3500.000    6.0879e-02
    3510.000    6.6148e-02
    3520.000    7.0875e-02
    3530.000    7.5905e-02
    3540.000    8.0968e-02
    3550.000    8.5967e-02
    3560.000    9.0942e-02
    3570.000    9.5923e-02
    3580.000    1.0012e-01
    3590.000    1.0445e-01
    3600.000    1.0879e-01
    3610.000    1.1302e-01
    3620.000    1.1724e-01
    3630.000    1.2208e-01
    3640.000    1.2563e-01
    3650.000    1.2979e-01
    3660.000    1.3431e-01
    3670.000    1.3873e-01
    3680.000    1.4296e-01
    3690.000    1.4680e-01
    3700.000    1.5091e-01
    3710.000    1.5496e-01
    3720.000    1.5818e-01
    3730.000    1.6051e-01
    3740.000    1.6375e-01
    3750.000    1.6482e-01
    3760.000    1.6647e-01
    3770.000    1.6727e-01
    3780.000    1.6678e-01
    3790.000    1.6564e-01
    3800.000    1.6577e-01
    3810.000    1.6405e-01
    3820.000    1.6145e-01
    3830.000    1.5841e-01
    3840.000    1.5473e-01
    3850.000    1.4985e-01
    3860.000    1.4470e-01
    3870.000    1.3839e-01
    3880.000    1.3105e-01
    3890.000    1.2364e-01
    3900.000    1.1623e-01
    3910.000    1.0760e-01
    3920.000    9.8839e-02
    3930.000    9.0618e-02
    3940.000    8.1780e-02
    3950.000    7.3084e-02
    3960.000    6.5099e-02
    3970.000    5.6623e-02
    3980.000    4.9217e-02
    3990.000    4.2335e-02
    4000.000    3.5961e-02
    4010.000    3.0127e-02
    4020.000    2.4902e-02
    4030.000    2.0441e-02
    4040.000    1.6498e-02
    4050.000    1.3295e-02
    4060.000    1.0565e-02
    4070.000    8.2137e-03
    4080.000    6.3203e-03
    4090.000    4.8971e-03
    4100.000    3.7015e-03
    4110.000    2.7848e-03
    4120.000    2.0864e-03
    4130.000    1.5403e-03
    4140.000    1.1126e-03
    4150.000    8.2932e-04
    4160.000    6.0698e-04
    4170.000    4.3268e-04
    4180.000    3.1727e-04
    4190.000    2.5398e-04
    4200.000    1.9200e-04
    4210.000    0.0000e+00
    4220.000    0.0000e+00
    4230.000    0.0000e+00
    4240.000    0.0000e+00
    4250.000    0.0000e+00
    4260.000    0.0000e+00
    4270.000    0.0000e+00
    4280.000    0.0000e+00
    4290.000    0.0000e+00
    4300.000    0.0000e+00
    4310.000    0.0000e+00
    4320.000    0.0000e+00
    4330.000    0.0000e+00
    4340.000    0.0000e+00
    4350.000    0.0000e+00
    4360.000    0.0000e+00
    4370.000    0.0000e+00
    4380.000    0.0000e+00
    4390.000    0.0000e+00
    4400.000    0.0000e+00
    4410.000    0.0000e+00
    4420.000    0.0000e+00
    4430.000    0.0000e+00
    4440.000    0.0000e+00
    4450.000    0.0000e+00
    4460.000    0.0000e+00
    4470.000    0.0000e+00
    4480.000    0.0000e+00
    4490.000    0.0000e+00
    4500.000    0.0000e+00
    4510.000  0.
