#  wavelength (A)   throughput  
    2997.000  0.
    3002.000    0.0000e+00
    3007.000    0.0000e+00
    3012.000    0.0000e+00
    3017.000    0.0000e+00
    3022.000    0.0000e+00
    3027.000    0.0000e+00
    3032.000    0.0000e+00
    3037.000    0.0000e+00
    3042.000    0.0000e+00
    3047.000    0.0000e+00
    3052.000    0.0000e+00
    3057.000    0.0000e+00
    3062.000    0.0000e+00
    3067.000    1.1245e-07
    3072.000    2.3767e-07
    3077.000    2.1605e-06
    3082.000    6.0465e-06
    3087.000    1.0261e-05
    3092.000    1.9815e-05
    3097.000    2.9370e-05
    3102.000    4.4857e-05
    3107.000    6.3711e-05
    3112.000    8.5852e-05
    3117.000    1.1979e-04
    3122.000    1.5372e-04
    3127.000    2.0402e-04
    3132.000    2.5847e-04
    3137.000    3.2325e-04
    3142.000    4.0503e-04
    3147.000    4.8681e-04
    3152.000    5.9950e-04
    3157.000    7.1354e-04
    3162.000    8.5454e-04
    3167.000    1.0187e-03
    3172.000    1.1891e-03
    3177.000    1.4069e-03
    3182.000    1.6246e-03
    3187.000    1.8781e-03
    3192.000    2.1471e-03
    3197.000    2.4338e-03
    3202.000    2.7669e-03
    3207.000    3.0999e-03
    3212.000    3.5086e-03
    3217.000    3.9299e-03
    3222.000    4.3784e-03
    3227.000    4.8621e-03
    3232.000    5.3470e-03
    3237.000    5.9065e-03
    3242.000    6.4660e-03
    3247.000    7.0833e-03
    3252.000    7.7397e-03
    3257.000    8.4125e-03
    3262.000    9.1616e-03
    3267.000    9.9108e-03
    3272.000    1.0699e-02
    3277.000    1.1501e-02
    3282.000    1.2352e-02
    3287.000    1.3304e-02
    3292.000    1.4255e-02
    3297.000    1.5247e-02
    3302.000    1.6243e-02
    3307.000    1.7287e-02
    3312.000    1.8379e-02
    3317.000    1.9478e-02
    3322.000    2.0649e-02
    3327.000    2.1820e-02
    3332.000    2.3011e-02
    3337.000    2.4211e-02
    3342.000    2.5416e-02
    3347.000    2.6640e-02
    3352.000    2.7863e-02
    3357.000    2.9333e-02
    3362.000    3.0859e-02
    3367.000    3.2369e-02
    3372.000    3.3852e-02
    3377.000    3.5335e-02
    3382.000    3.6918e-02
    3387.000    3.8505e-02
    3392.000    4.0125e-02
    3397.000    4.1772e-02
    3402.000    4.3422e-02
    3407.000    4.5095e-02
    3412.000    4.6767e-02
    3417.000    4.8407e-02
    3422.000    5.0034e-02
    3427.000    5.1739e-02
    3432.000    5.3631e-02
    3437.000    5.5522e-02
    3442.000    5.7368e-02
    3447.000    5.9207e-02
    3452.000    6.1056e-02
    3457.000    6.2916e-02
    3462.000    6.4782e-02
    3467.000    6.6828e-02
    3472.000    6.8875e-02
    3477.000    7.0793e-02
    3482.000    7.2631e-02
    3487.000    7.4496e-02
    3492.000    7.6476e-02
    3497.000    7.8457e-02
    3502.000    8.0440e-02
    3507.000    8.2423e-02
    3512.000    8.4291e-02
    3517.000    8.5945e-02
    3522.000    8.7600e-02
    3527.000    8.9532e-02
    3532.000    9.1483e-02
    3537.000    9.3432e-02
    3542.000    9.5377e-02
    3547.000    9.7327e-02
    3552.000    9.9332e-02
    3557.000    1.0134e-01
    3562.000    1.0341e-01
    3567.000    1.0553e-01
    3572.000    1.0755e-01
    3577.000    1.0931e-01
    3582.000    1.1108e-01
    3587.000    1.1305e-01
    3592.000    1.1505e-01
    3597.000    1.1705e-01
    3602.000    1.1902e-01
    3607.000    1.2099e-01
    3612.000    1.2291e-01
    3617.000    1.2482e-01
    3622.000    1.2691e-01
    3627.000    1.2914e-01
    3632.000    1.3124e-01
    3637.000    1.3260e-01
    3642.000    1.3396e-01
    3647.000    1.3571e-01
    3652.000    1.3760e-01
    3657.000    1.3946e-01
    3662.000    1.4125e-01
    3667.000    1.4304e-01
    3672.000    1.4467e-01
    3677.000    1.4628e-01
    3682.000    1.4779e-01
    3687.000    1.4918e-01
    3692.000    1.5059e-01
    3697.000    1.5216e-01
    3702.000    1.5373e-01
    3707.000    1.5527e-01
    3712.000    1.5679e-01
    3717.000    1.5812e-01
    3722.000    1.5874e-01
    3727.000    1.5936e-01
    3732.000    1.6045e-01
    3737.000    1.6166e-01
    3742.000    1.6248e-01
    3747.000    1.6263e-01
    3752.000    1.6278e-01
    3757.000    1.6331e-01
    3762.000    1.6387e-01
    3767.000    1.6396e-01
    3772.000    1.6363e-01
    3777.000    1.6322e-01
    3782.000    1.6224e-01
    3787.000    1.6126e-01
    3792.000    1.6078e-01
    3797.000    1.6054e-01
    3802.000    1.6005e-01
    3807.000    1.5885e-01
    3812.000    1.5766e-01
    3817.000    1.5606e-01
    3822.000    1.5438e-01
    3827.000    1.5266e-01
    3832.000    1.5087e-01
    3837.000    1.4909e-01
    3842.000    1.4652e-01
    3847.000    1.4396e-01
    3852.000    1.4133e-01
    3857.000    1.3865e-01
    3862.000    1.3587e-01
    3867.000    1.3260e-01
    3872.000    1.2932e-01
    3877.000    1.2561e-01
    3882.000    1.2175e-01
    3887.000    1.1802e-01
    3892.000    1.1456e-01
    3897.000    1.1109e-01
    3902.000    1.0696e-01
    3907.000    1.0277e-01
    3912.000    9.8554e-02
    3917.000    9.4325e-02
    3922.000    9.0116e-02
    3927.000    8.6220e-02
    3932.000    8.2324e-02
    3937.000    7.8100e-02
    3942.000    7.3696e-02
    3947.000    6.9444e-02
    3952.000    6.5724e-02
    3957.000    6.2005e-02
    3962.000    5.8083e-02
    3967.000    5.4112e-02
    3972.000    5.0341e-02
    3977.000    4.6893e-02
    3982.000    4.3446e-02
    3987.000    4.0314e-02
    3992.000    3.7193e-02
    3997.000    3.4243e-02
    4002.000    3.1435e-02
    4007.000    2.8672e-02
    4012.000    2.6218e-02
    4017.000    2.3765e-02
    4022.000    2.1607e-02
    4027.000    1.9574e-02
    4032.000    1.7614e-02
    4037.000    1.5840e-02
    4042.000    1.4065e-02
    4047.000    1.2673e-02
    4052.000    1.1342e-02
    4057.000    1.0095e-02
    4062.000    8.9549e-03
    4067.000    7.8206e-03
    4072.000    6.9483e-03
    4077.000    6.0760e-03
    4082.000    5.3461e-03
    4087.000    4.7103e-03
    4092.000    4.0957e-03
    4097.000    3.5763e-03
    4102.000    3.0569e-03
    4107.000    2.6631e-03
    4112.000    2.3085e-03
    4117.000    1.9867e-03
    4122.000    1.7282e-03
    4127.000    1.4697e-03
    4132.000    1.2721e-03
    4137.000    1.0798e-03
    4142.000    9.2166e-04
    4147.000    7.9749e-04
    4152.000    6.7584e-04
    4157.000    5.8311e-04
    4162.000    4.9038e-04
    4167.000    4.1477e-04
    4172.000    3.4799e-04
    4177.000    2.9056e-04
    4182.000    2.6278e-04
    4187.000    2.3500e-04
    4192.000    2.0798e-04
    4197.000    1.8112e-04
    4202.000  0.
