#  wavelength (A)   throughput  
    2995.000  0.
    3000.000    0.0000e+00
    3005.000    0.0000e+00
    3010.000    0.0000e+00
    3015.000    0.0000e+00
    3020.000    0.0000e+00
    3025.000    0.0000e+00
    3030.000    0.0000e+00
    3035.000    0.0000e+00
    3040.000    0.0000e+00
    3045.000    0.0000e+00
    3050.000    0.0000e+00
    3055.000    0.0000e+00
    3060.000    0.0000e+00
    3065.000    0.0000e+00
    3070.000    0.0000e+00
    3075.000    0.0000e+00
    3080.000    0.0000e+00
    3085.000    0.0000e+00
    3090.000    0.0000e+00
    3095.000    0.0000e+00
    3100.000    2.8684e-03
    3105.000    3.0347e-03
    3110.000    3.2098e-03
    3115.000    3.3950e-03
    3120.000    3.5900e-03
    3125.000    3.7961e-03
    3130.000    4.0131e-03
    3135.000    4.2425e-03
    3140.000    4.4840e-03
    3145.000    4.7392e-03
    3150.000    5.0078e-03
    3155.000    5.2916e-03
    3160.000    5.5902e-03
    3165.000    5.9057e-03
    3170.000    6.2376e-03
    3175.000    6.5883e-03
    3180.000    6.9571e-03
    3185.000    7.3466e-03
    3190.000    7.7563e-03
    3195.000    8.1890e-03
    3200.000    8.6439e-03
    3205.000    8.8841e-03
    3210.000    9.1299e-03
    3215.000    9.3819e-03
    3220.000    9.6399e-03
    3225.000    9.9044e-03
    3230.000    1.0175e-02
    3235.000    1.0453e-02
    3240.000    1.0737e-02
    3245.000    1.1028e-02
    3250.000    1.1326e-02
    3255.000    1.1592e-02
    3260.000    1.1863e-02
    3265.000    1.2141e-02
    3270.000    1.2425e-02
    3275.000    1.2715e-02
    3280.000    1.3011e-02
    3285.000    1.3314e-02
    3290.000    1.3624e-02
    3295.000    1.3940e-02
    3300.000    1.4264e-02
    3305.000    1.4497e-02
    3310.000    1.4734e-02
    3315.000    1.4974e-02
    3320.000    1.5217e-02
    3325.000    1.5464e-02
    3330.000    1.5715e-02
    3335.000    1.5969e-02
    3340.000    1.6227e-02
    3345.000    1.6489e-02
    3350.000    1.6754e-02
    3355.000    1.7023e-02
    3360.000    1.7296e-02
    3365.000    1.7573e-02
    3370.000    1.7854e-02
    3375.000    1.8139e-02
    3380.000    1.8428e-02
    3385.000    1.8721e-02
    3390.000    1.9018e-02
    3395.000    1.9319e-02
    3400.000    1.9625e-02
    3405.000    1.9887e-02
    3410.000    2.0152e-02
    3415.000    2.0421e-02
    3420.000    2.0692e-02
    3425.000    2.0967e-02
    3430.000    2.1244e-02
    3435.000    2.1525e-02
    3440.000    2.1809e-02
    3445.000    2.2097e-02
    3450.000    2.2387e-02
    3455.000    2.2681e-02
    3460.000    2.2979e-02
    3465.000    2.3280e-02
    3470.000    2.3584e-02
    3475.000    2.3891e-02
    3480.000    2.4202e-02
    3485.000    2.4517e-02
    3490.000    2.4835e-02
    3495.000    2.5157e-02
    3500.000    2.5483e-02
    3505.000    2.6156e-02
    3510.000    2.6841e-02
    3515.000    2.8409e-02
    3520.000    3.0006e-02
    3525.000    3.1546e-02
    3530.000    3.3116e-02
    3535.000    3.5306e-02
    3540.000    3.7538e-02
    3545.000    3.8410e-02
    3550.000    3.9295e-02
    3555.000    4.0950e-02
    3560.000    4.2634e-02
    3565.000    4.4308e-02
    3570.000    4.6012e-02
    3575.000    4.7677e-02
    3580.000    4.9370e-02
    3585.000    5.0261e-02
    3590.000    5.1164e-02
    3595.000    5.1937e-02
    3600.000    5.2720e-02
    3605.000    5.4613e-02
    3610.000    5.6543e-02
    3615.000    5.8079e-02
    3620.000    5.9641e-02
    3625.000    6.1332e-02
    3630.000    6.3053e-02
    3635.000    6.4705e-02
    3640.000    6.6383e-02
    3645.000    6.8469e-02
    3650.000    7.0592e-02
    3655.000    7.2422e-02
    3660.000    7.4283e-02
    3665.000    7.5711e-02
    3670.000    7.7157e-02
    3675.000    7.9279e-02
    3680.000    8.1438e-02
    3685.000    8.3780e-02
    3690.000    8.6165e-02
    3695.000    9.1057e-02
    3700.000    9.6061e-02
    3705.000    9.4437e-02
    3710.000    9.2746e-02
    3715.000    9.3930e-02
    3720.000    9.5120e-02
    3725.000    9.6454e-02
    3730.000    9.7798e-02
    3735.000    9.9223e-02
    3740.000    1.0066e-01
    3745.000    1.0227e-01
    3750.000    1.0390e-01
    3755.000    1.0601e-01
    3760.000    1.0815e-01
    3765.000    1.1040e-01
    3770.000    1.1268e-01
    3775.000    1.1438e-01
    3780.000    1.1608e-01
    3785.000    1.1796e-01
    3790.000    1.1985e-01
    3795.000    1.2124e-01
    3800.000    1.2264e-01
    3805.000    1.2382e-01
    3810.000    1.2500e-01
    3815.000    1.2642e-01
    3820.000    1.2785e-01
    3825.000    1.2909e-01
    3830.000    1.3034e-01
    3835.000    1.3174e-01
    3840.000    1.3316e-01
    3845.000    1.3397e-01
    3850.000    1.3478e-01
    3855.000    1.3547e-01
    3860.000    1.3615e-01
    3865.000    1.3639e-01
    3870.000    1.3663e-01
    3875.000    1.3707e-01
    3880.000    1.3750e-01
    3885.000    1.3698e-01
    3890.000    1.3644e-01
    3895.000    1.3573e-01
    3900.000    1.3501e-01
    3905.000    1.3460e-01
    3910.000    1.3418e-01
    3915.000    1.3604e-01
    3920.000    1.3791e-01
    3925.000    1.3876e-01
    3930.000    1.3961e-01
    3935.000    1.2169e-01
    3940.000    1.0354e-01
    3945.000    7.4513e-02
    3950.000    4.5108e-02
    3955.000    3.0311e-02
    3960.000    1.5356e-02
    3965.000    1.0963e-02
    3970.000    6.5230e-03
    3975.000    4.8699e-03
    3980.000    3.1996e-03
    3985.000    2.7148e-03
    3990.000    2.2250e-03
    3995.000    1.9139e-03
    4000.000    1.5995e-03
    4005.000    1.6986e-03
    4010.000    1.7983e-03
    4015.000    1.6833e-03
    4020.000    1.5676e-03
    4025.000    1.5087e-03
    4030.000    1.4494e-03
    4035.000    1.5873e-03
    4040.000    1.7259e-03
    4045.000    1.5243e-03
    4050.000    1.3217e-03
    4055.000    1.3056e-03
    4060.000    1.2895e-03
    4065.000    1.2488e-03
    4070.000    1.2080e-03
    4075.000    1.2169e-03
    4080.000    1.2259e-03
    4085.000    1.4059e-03
    4090.000    1.5865e-03
    4095.000    1.3774e-03
    4100.000    0.0000e+00
    4105.000    0.0000e+00
    4110.000    0.0000e+00
    4115.000    0.0000e+00
    4120.000    0.0000e+00
    4125.000    0.0000e+00
    4130.000    0.0000e+00
    4135.000    0.0000e+00
    4140.000    0.0000e+00
    4145.000    0.0000e+00
    4150.000    0.0000e+00
    4155.000    0.0000e+00
    4160.000    0.0000e+00
    4165.000    0.0000e+00
    4170.000    0.0000e+00
    4175.000    0.0000e+00
    4180.000    0.0000e+00
    4185.000    0.0000e+00
    4190.000    0.0000e+00
    4195.000    0.0000e+00
    4200.000    0.0000e+00
    4205.000  0.
